 RMODE NFREQ    PERIOD(S) FREQUENCY(Hz)  C(KM/S)      U(KM/S)       AR          GAMMA(1/KM)  ELLIPTICITY
    0     1    2.0000      0.50000       3.1667       3.1710      0.58720E-02  0.30335E-02  0.69385    
    0     2    2.0157      0.49609       3.1667       3.1710      0.58262E-02  0.30098E-02  0.69385    
    0     3    2.0317      0.49219       3.1666       3.1710      0.57803E-02  0.29861E-02  0.69385    
    0     4    2.0480      0.48828       3.1666       3.1710      0.57344E-02  0.29624E-02  0.69385    
    0     5    2.0645      0.48438       3.1665       3.1710      0.56885E-02  0.29387E-02  0.69385    
    0     6    2.0813      0.48047       3.1665       3.1710      0.56427E-02  0.29150E-02  0.69385    
    0     7    2.0984      0.47656       3.1664       3.1710      0.55968E-02  0.28913E-02  0.69385    
    0     8    2.1157      0.47266       3.1664       3.1710      0.55509E-02  0.28676E-02  0.69385    
    0     9    2.1333      0.46875       3.1663       3.1710      0.55051E-02  0.28439E-02  0.69385    
    0    10    2.1513      0.46484       3.1663       3.1710      0.54592E-02  0.28202E-02  0.69385    
    0    11    2.1695      0.46094       3.1662       3.1710      0.54133E-02  0.27965E-02  0.69385    
    0    12    2.1880      0.45703       3.1662       3.1710      0.53675E-02  0.27728E-02  0.69385    
    0    13    2.2069      0.45312       3.1661       3.1710      0.53216E-02  0.27491E-02  0.69385    
    0    14    2.2261      0.44922       3.1661       3.1710      0.52757E-02  0.27254E-02  0.69385    
    0    15    2.2456      0.44531       3.1660       3.1710      0.52299E-02  0.27017E-02  0.69385    
    0    16    2.2655      0.44141       3.1660       3.1710      0.51840E-02  0.26780E-02  0.69385    
    0    17    2.2857      0.43750       3.1659       3.1710      0.51382E-02  0.26543E-02  0.69384    
    0    18    2.3063      0.43359       3.1658       3.1710      0.50923E-02  0.26306E-02  0.69384    
    0    19    2.3273      0.42969       3.1658       3.1710      0.50464E-02  0.26069E-02  0.69384    
    0    20    2.3486      0.42578       3.1657       3.1710      0.50006E-02  0.25832E-02  0.69384    
    0    21    2.3704      0.42188       3.1657       3.1710      0.49547E-02  0.25595E-02  0.69384    
    0    22    2.3925      0.41797       3.1656       3.1710      0.49089E-02  0.25358E-02  0.69384    
    0    23    2.4151      0.41406       3.1656       3.1710      0.48630E-02  0.25121E-02  0.69384    
    0    24    2.4381      0.41016       3.1655       3.1710      0.48172E-02  0.24884E-02  0.69384    
    0    25    2.4615      0.40625       3.1654       3.1710      0.47713E-02  0.24647E-02  0.69384    
    0    26    2.4854      0.40234       3.1654       3.1710      0.47255E-02  0.24410E-02  0.69384    
    0    27    2.5098      0.39844       3.1653       3.1710      0.46797E-02  0.24173E-02  0.69384    
    0    28    2.5347      0.39453       3.1653       3.1709      0.46338E-02  0.23936E-02  0.69384    
    0    29    2.5600      0.39062       3.1652       3.1709      0.45880E-02  0.23699E-02  0.69384    
    0    30    2.5859      0.38672       3.1651       3.1709      0.45422E-02  0.23462E-02  0.69384    
    0    31    2.6122      0.38281       3.1651       3.1709      0.44964E-02  0.23225E-02  0.69384    
    0    32    2.6392      0.37891       3.1650       3.1709      0.44506E-02  0.22988E-02  0.69384    
    0    33    2.6667      0.37500       3.1650       3.1709      0.44048E-02  0.22751E-02  0.69384    
    0    34    2.6947      0.37109       3.1649       3.1709      0.43590E-02  0.22514E-02  0.69384    
    0    35    2.7234      0.36719       3.1648       3.1709      0.43132E-02  0.22277E-02  0.69384    
    0    36    2.7527      0.36328       3.1648       3.1709      0.42674E-02  0.22040E-02  0.69384    
    0    37    2.7826      0.35938       3.1647       3.1708      0.42217E-02  0.21803E-02  0.69384    
    0    38    2.8132      0.35547       3.1646       3.1708      0.41759E-02  0.21566E-02  0.69384    
    0    39    2.8444      0.35156       3.1646       3.1708      0.41302E-02  0.21329E-02  0.69384    
    0    40    2.8764      0.34766       3.1645       3.1708      0.40844E-02  0.21093E-02  0.69384    
    0    41    2.9091      0.34375       3.1644       3.1707      0.40387E-02  0.20856E-02  0.69384    
    0    42    2.9425      0.33984       3.1644       3.1707      0.39930E-02  0.20619E-02  0.69384    
    0    43    2.9767      0.33594       3.1643       3.1707      0.39473E-02  0.20382E-02  0.69384    
    0    44    3.0118      0.33203       3.1642       3.1706      0.39017E-02  0.20145E-02  0.69384    
    0    45    3.0476      0.32812       3.1642       3.1706      0.38560E-02  0.19908E-02  0.69384    
    0    46    3.0843      0.32422       3.1641       3.1705      0.38104E-02  0.19671E-02  0.69383    
    0    47    3.1220      0.32031       3.1640       3.1705      0.37648E-02  0.19434E-02  0.69383    
    0    48    3.1605      0.31641       3.1640       3.1704      0.37192E-02  0.19197E-02  0.69383    
    0    49    3.2000      0.31250       3.1639       3.1704      0.36737E-02  0.18960E-02  0.69383    
    0    50    3.2405      0.30859       3.1638       3.1703      0.36282E-02  0.18723E-02  0.69383    
    0    51    3.2821      0.30469       3.1638       3.1702      0.35827E-02  0.18486E-02  0.69382    
    0    52    3.3247      0.30078       3.1637       3.1701      0.35373E-02  0.18249E-02  0.69382    
    0    53    3.3684      0.29688       3.1636       3.1700      0.34919E-02  0.18012E-02  0.69382    
    0    54    3.4133      0.29297       3.1636       3.1699      0.34466E-02  0.17776E-02  0.69382    
    0    55    3.4595      0.28906       3.1635       3.1698      0.34013E-02  0.17539E-02  0.69381    
    0    56    3.5068      0.28516       3.1634       3.1696      0.33560E-02  0.17302E-02  0.69381    
    0    57    3.5556      0.28125       3.1634       3.1694      0.33108E-02  0.17065E-02  0.69380    
    0    58    3.6056      0.27734       3.1633       3.1693      0.32657E-02  0.16828E-02  0.69380    
    0    59    3.6571      0.27344       3.1632       3.1691      0.32206E-02  0.16591E-02  0.69379    
    0    60    3.7101      0.26953       3.1632       3.1689      0.31756E-02  0.16354E-02  0.69378    
    0    61    3.7647      0.26562       3.1631       3.1686      0.31307E-02  0.16117E-02  0.69378    
    0    62    3.8209      0.26172       3.1631       3.1683      0.30859E-02  0.15880E-02  0.69377    
    0    63    3.8788      0.25781       3.1630       3.1680      0.30411E-02  0.15643E-02  0.69376    
    0    64    3.9385      0.25391       3.1630       3.1677      0.29964E-02  0.15406E-02  0.69374    
    0    65    4.0000      0.25000       3.1630       3.1673      0.29519E-02  0.15170E-02  0.69373    
    0    66    4.0635      0.24609       3.1629       3.1669      0.29074E-02  0.14933E-02  0.69372    
    0    67    4.1290      0.24219       3.1629       3.1665      0.28631E-02  0.14696E-02  0.69370    
    0    68    4.1967      0.23828       3.1629       3.1660      0.28189E-02  0.14459E-02  0.69368    
    0    69    4.2667      0.23437       3.1629       3.1654      0.27748E-02  0.14222E-02  0.69366    
    0    70    4.3390      0.23047       3.1629       3.1648      0.27308E-02  0.13984E-02  0.69364    
    0    71    4.4138      0.22656       3.1629       3.1641      0.26870E-02  0.13747E-02  0.69361    
    0    72    4.4912      0.22266       3.1630       3.1634      0.26434E-02  0.13510E-02  0.69358    
    0    73    4.5714      0.21875       3.1630       3.1625      0.25999E-02  0.13273E-02  0.69354    
    0    74    4.6545      0.21484       3.1631       3.1616      0.25565E-02  0.13035E-02  0.69350    
    0    75    4.7407      0.21094       3.1632       3.1606      0.25134E-02  0.12798E-02  0.69346    
    0    76    4.8302      0.20703       3.1633       3.1595      0.24704E-02  0.12560E-02  0.69341    
    0    77    4.9231      0.20312       3.1635       3.1583      0.24277E-02  0.12323E-02  0.69336    
    0    78    5.0196      0.19922       3.1637       3.1569      0.23851E-02  0.12085E-02  0.69330    
    0    79    5.1200      0.19531       3.1639       3.1554      0.23427E-02  0.11846E-02  0.69323    
    0    80    5.2245      0.19141       3.1642       3.1538      0.23006E-02  0.11608E-02  0.69315    
    0    81    5.3333      0.18750       3.1645       3.1520      0.22586E-02  0.11369E-02  0.69306    
    0    82    5.4468      0.18359       3.1649       3.1500      0.22169E-02  0.11130E-02  0.69296    
    0    83    5.5652      0.17969       3.1653       3.1479      0.21755E-02  0.10891E-02  0.69285    
    0    84    5.6889      0.17578       3.1658       3.1455      0.21342E-02  0.10651E-02  0.69273    
    0    85    5.8182      0.17188       3.1664       3.1429      0.20932E-02  0.10411E-02  0.69259    
    0    86    5.9535      0.16797       3.1671       3.1401      0.20524E-02  0.10170E-02  0.69244    
    0    87    6.0952      0.16406       3.1680       3.1370      0.20119E-02  0.99284E-03  0.69227    
    0    88    6.2439      0.16016       3.1689       3.1336      0.19715E-02  0.96861E-03  0.69207    
    0    89    6.4000      0.15625       3.1700       3.1300      0.19314E-02  0.94429E-03  0.69186    
    0    90    6.5641      0.15234       3.1712       3.1259      0.18915E-02  0.91988E-03  0.69162    
    0    91    6.7368      0.14844       3.1726       3.1216      0.18518E-02  0.89536E-03  0.69136    
    0    92    6.9189      0.14453       3.1743       3.1168      0.18122E-02  0.87071E-03  0.69107    
    0    93    7.1111      0.14062       3.1761       3.1117      0.17728E-02  0.84592E-03  0.69074    
    0    94    7.3143      0.13672       3.1783       3.1061      0.17336E-02  0.82097E-03  0.69038    
    0    95    7.5294      0.13281       3.1808       3.1001      0.16944E-02  0.79584E-03  0.68999    
    0    96    7.7576      0.12891       3.1836       3.0936      0.16553E-02  0.77051E-03  0.68955    
    0    97    8.0000      0.12500       3.1869       3.0865      0.16161E-02  0.74496E-03  0.68908    
    0    98    8.2581      0.12109       3.1906       3.0790      0.15770E-02  0.71917E-03  0.68856    
    0    99    8.5333      0.11719       3.1949       3.0708      0.15377E-02  0.69311E-03  0.68799    
    0   100    8.8276      0.11328       3.1998       3.0620      0.14982E-02  0.66675E-03  0.68737    
    0   101    9.1429      0.10937       3.2055       3.0526      0.14585E-02  0.64007E-03  0.68670    
    0   102    9.4815      0.10547       3.2120       3.0426      0.14184E-02  0.61304E-03  0.68599    
    0   103    9.8462      0.10156       3.2196       3.0319      0.13778E-02  0.58564E-03  0.68523    
    0   104    10.240      0.97656E-01   3.2283       3.0205      0.13366E-02  0.55786E-03  0.68442    
    0   105    10.667      0.93750E-01   3.2383       3.0084      0.12947E-02  0.52966E-03  0.68359    
    0   106    11.130      0.89844E-01   3.2500       2.9957      0.12519E-02  0.50105E-03  0.68273    
    0   107    11.636      0.85938E-01   3.2636       2.9825      0.12079E-02  0.47200E-03  0.68187    
    0   108    12.190      0.82031E-01   3.2794       2.9688      0.11625E-02  0.44254E-03  0.68103    
    0   109    12.800      0.78125E-01   3.2978       2.9550      0.11153E-02  0.41267E-03  0.68028    
    0   110    13.474      0.74219E-01   3.3194       2.9416      0.10658E-02  0.38242E-03  0.67965    
    0   111    14.222      0.70312E-01   3.3447       2.9293      0.10135E-02  0.35184E-03  0.67927    
    0   112    15.059      0.66406E-01   3.3743       2.9194      0.95748E-03  0.32101E-03  0.67927    
    0   113    16.000      0.62500E-01   3.4090       2.9139      0.89676E-03  0.29004E-03  0.67988    
    0   114    17.067      0.58594E-01   3.4495       2.9159      0.83016E-03  0.25912E-03  0.68143    
    0   115    18.286      0.54687E-01   3.4962       2.9299      0.75650E-03  0.22858E-03  0.68442    
    0   116    19.692      0.50781E-01   3.5492       2.9616      0.67513E-03  0.19891E-03  0.68953    
    0   117    21.333      0.46875E-01   3.6077       3.0171      0.58675E-03  0.17088E-03  0.69767    
    0   118    23.273      0.42969E-01   3.6700       3.1006      0.49432E-03  0.14548E-03  0.70984    
    0   119    25.600      0.39062E-01   3.7331       3.2114      0.40309E-03  0.12379E-03  0.72688    
    0   120    28.444      0.35156E-01   3.7939       3.3415      0.31921E-03  0.10665E-03  0.74906    
    0   121    32.000      0.31250E-01   3.8496       3.4777      0.24728E-03  0.94473E-04  0.77566    
    0   122    36.571      0.27344E-01   3.8986       3.6060      0.18894E-03  0.87070E-04  0.80473    
    0   123    42.667      0.23438E-01   3.9409       3.7163      0.14321E-03  0.83559E-04  0.83300    
    0   124    51.200      0.19531E-01   3.9781       3.8030      0.10781E-03  0.81967E-04  0.85588    
    0   125    64.000      0.15625E-01   4.0150       3.8616      0.80246E-04  0.78690E-04  0.86727    
    0   126    85.333      0.11719E-01   4.0672       3.8781      0.58425E-04  0.68697E-04  0.85894    
    0   127    128.00      0.78125E-02   4.2013       3.7980      0.40457E-04  0.48254E-04  0.81780    
    0   128    256.00      0.39062E-02   4.9542       3.6577      0.19339E-04  0.17936E-04  0.73982    
